PE UV       SUBTECH     SPECTRUM    ASCII       PEDS        4.00        
   -1
100% or 0 Absorbance Baseline.Correction.Raw.asc
14/04/16
16:59:50.00
14/04/16
16:59:50.00
Studente LDss

450.000000
1
Lambda 25
COM
PerkinElmer UV WinLab 6.0.4.0738 / Lambda25 1.27

480
0
1
0
0
Both on
0
1
1
None
0
0
0
0
 
 
0
0
0
0
0
 
 
 
0
 
0
326
0
 
0
 
 
 
0
0
0
 
0
 
 
 
0
 
 
0
0
0
0
0
 
 
 
 
0
0


0
0
#HDR
-1
-1
#GR
nm
A
1.0
0.0
950.000000
-1.000000
501
8
-0.007581
-0.041132
#DATA
950.000000	-0.018438
949.000000	-0.019100
948.000000	-0.019810
947.000000	-0.020444
946.000000	-0.021107
945.000000	-0.021698
944.000000	-0.022391
943.000000	-0.022907
942.000000	-0.023541
941.000000	-0.023911
940.000000	-0.024342
939.000000	-0.024679
938.000000	-0.024966
937.000000	-0.025220
936.000000	-0.025543
935.000000	-0.025662
934.000000	-0.025785
933.000000	-0.025965
932.000000	-0.026010
931.000000	-0.026116
930.000000	-0.026194
929.000000	-0.026272
928.000000	-0.026378
927.000000	-0.026349
926.000000	-0.026358
925.000000	-0.026341
924.000000	-0.026349
923.000000	-0.026255
922.000000	-0.026202
921.000000	-0.026194
920.000000	-0.026059
919.000000	-0.025895
918.000000	-0.025793
917.000000	-0.025523
916.000000	-0.025351
915.000000	-0.025236
914.000000	-0.025208
913.000000	-0.025150
912.000000	-0.025228
911.000000	-0.025183
910.000000	-0.025216
909.000000	-0.025191
908.000000	-0.025289
907.000000	-0.025457
906.000000	-0.025601
905.000000	-0.025883
904.000000	-0.026104
903.000000	-0.026505
902.000000	-0.026872
901.000000	-0.027374
900.000000	-0.027810
899.000000	-0.028303
898.000000	-0.028616
897.000000	-0.029169
896.000000	-0.029587
895.000000	-0.029980
894.000000	-0.030369
893.000000	-0.030814
892.000000	-0.031113
891.000000	-0.031586
890.000000	-0.031933
889.000000	-0.032296
888.000000	-0.032679
887.000000	-0.032989
886.000000	-0.033311
885.000000	-0.033649
884.000000	-0.034002
883.000000	-0.034348
882.000000	-0.034713
881.000000	-0.035001
880.000000	-0.035326
879.000000	-0.035606
878.000000	-0.035886
877.000000	-0.036238
876.000000	-0.036477
875.000000	-0.036808
874.000000	-0.037008
873.000000	-0.037303
872.000000	-0.037570
871.000000	-0.037809
870.000000	-0.038044
869.000000	-0.038239
868.000000	-0.038572
867.000000	-0.038672
866.000000	-0.038862
865.000000	-0.039057
864.000000	-0.039283
863.000000	-0.039489
862.000000	-0.039624
861.000000	-0.039727
860.000000	-0.039906
859.000000	-0.040108
858.000000	-0.040187
857.000000	-0.040365
856.000000	-0.040496
855.000000	-0.040527
854.000000	-0.040634
853.000000	-0.040725
852.000000	-0.040800
851.000000	-0.040855
850.000000	-0.040934
849.000000	-0.040962
848.000000	-0.041010
847.000000	-0.041045
846.000000	-0.041093
845.000000	-0.041061
844.000000	-0.041108
843.000000	-0.041132
842.000000	-0.041073
841.000000	-0.041006
840.000000	-0.041037
839.000000	-0.040962
838.000000	-0.040851
837.000000	-0.040895
836.000000	-0.040733
835.000000	-0.040630
834.000000	-0.040666
833.000000	-0.040515
832.000000	-0.040551
831.000000	-0.040412
830.000000	-0.040230
829.000000	-0.040183
828.000000	-0.040060
827.000000	-0.039941
826.000000	-0.039747
825.000000	-0.039731
824.000000	-0.039466
823.000000	-0.039331
822.000000	-0.039208
821.000000	-0.038950
820.000000	-0.038815
819.000000	-0.038696
818.000000	-0.038489
817.000000	-0.038382
816.000000	-0.038143
815.000000	-0.037952
814.000000	-0.037757
813.000000	-0.037562
812.000000	-0.037371
811.000000	-0.037108
810.000000	-0.036904
809.000000	-0.036725
808.000000	-0.036425
807.000000	-0.036309
806.000000	-0.036030
805.000000	-0.035750
804.000000	-0.035538
803.000000	-0.035270
802.000000	-0.035017
801.000000	-0.034873
800.000000	-0.034560
799.000000	-0.034344
798.000000	-0.034143
797.000000	-0.033954
796.000000	-0.033790
795.000000	-0.033705
794.000000	-0.033267
793.000000	-0.033227
792.000000	-0.032941
791.000000	-0.032828
790.000000	-0.032671
789.000000	-0.032429
788.000000	-0.032236
787.000000	-0.032038
786.000000	-0.031893
785.000000	-0.031631
784.000000	-0.031485
783.000000	-0.031295
782.000000	-0.031081
781.000000	-0.030782
780.000000	-0.030709
779.000000	-0.030393
778.000000	-0.030256
777.000000	-0.029980
776.000000	-0.029773
775.000000	-0.029700
774.000000	-0.029449
773.000000	-0.029262
772.000000	-0.029197
771.000000	-0.028970
770.000000	-0.028848
769.000000	-0.028665
768.000000	-0.028372
767.000000	-0.028246
766.000000	-0.028099
765.000000	-0.027867
764.000000	-0.027672
763.000000	-0.027582
762.000000	-0.027301
761.000000	-0.027150
760.000000	-0.027011
759.000000	-0.026795
758.000000	-0.026652
757.000000	-0.026533
756.000000	-0.026460
755.000000	-0.026165
754.000000	-0.026039
753.000000	-0.025850
752.000000	-0.025711
751.000000	-0.025588
750.000000	-0.025474
749.000000	-0.025330
748.000000	-0.025171
747.000000	-0.025064
746.000000	-0.024921
745.000000	-0.024806
744.000000	-0.024547
743.000000	-0.024477
742.000000	-0.024313
741.000000	-0.024161
740.000000	-0.023997
739.000000	-0.023898
738.000000	-0.023767
737.000000	-0.023631
736.000000	-0.023520
735.000000	-0.023331
734.000000	-0.023199
733.000000	-0.023125
732.000000	-0.022952
731.000000	-0.022832
730.000000	-0.022762
729.000000	-0.022626
728.000000	-0.022428
727.000000	-0.022391
726.000000	-0.022218
725.000000	-0.022218
724.000000	-0.021995
723.000000	-0.021908
722.000000	-0.021793
721.000000	-0.021723
720.000000	-0.021545
719.000000	-0.021532
718.000000	-0.021437
717.000000	-0.021255
716.000000	-0.021202
715.000000	-0.021131
714.000000	-0.021007
713.000000	-0.020879
712.000000	-0.020767
711.000000	-0.020676
710.000000	-0.020585
709.000000	-0.020465
708.000000	-0.020382
707.000000	-0.020278
706.000000	-0.020220
705.000000	-0.020079
704.000000	-0.020042
703.000000	-0.019872
702.000000	-0.019764
701.000000	-0.019727
700.000000	-0.019602
699.000000	-0.019536
698.000000	-0.019420
697.000000	-0.019432
696.000000	-0.019262
695.000000	-0.019253
694.000000	-0.019150
693.000000	-0.019004
692.000000	-0.019058
691.000000	-0.018933
690.000000	-0.018809
689.000000	-0.018730
688.000000	-0.018584
687.000000	-0.018488
686.000000	-0.018409
685.000000	-0.018297
684.000000	-0.018401
683.000000	-0.018538
682.000000	-0.018393
681.000000	-0.018384
680.000000	-0.018322
679.000000	-0.018330
678.000000	-0.018151
677.000000	-0.018172
676.000000	-0.018072
675.000000	-0.018026
674.000000	-0.017947
673.000000	-0.017843
672.000000	-0.017738
671.000000	-0.017638
670.000000	-0.017559
669.000000	-0.017538
668.000000	-0.017472
667.000000	-0.017326
666.000000	-0.017371
665.000000	-0.017330
664.000000	-0.017238
663.000000	-0.017117
662.000000	-0.017063
661.000000	-0.017054
660.000000	-0.016996
659.000000	-0.016946
658.000000	-0.016971
657.000000	-0.016933
656.000000	-0.016887
655.000000	-0.016941
654.000000	-0.016845
653.000000	-0.016887
652.000000	-0.016833
651.000000	-0.016779
650.000000	-0.016745
649.000000	-0.016595
648.000000	-0.016628
647.000000	-0.016662
646.000000	-0.016611
645.000000	-0.016620
644.000000	-0.016607
643.000000	-0.016578
642.000000	-0.016524
641.000000	-0.016465
640.000000	-0.016457
639.000000	-0.016432
638.000000	-0.016411
637.000000	-0.016377
636.000000	-0.016381
635.000000	-0.016298
634.000000	-0.016352
633.000000	-0.016319
632.000000	-0.016306
631.000000	-0.016222
630.000000	-0.016231
629.000000	-0.016260
628.000000	-0.016268
627.000000	-0.016285
626.000000	-0.016335
625.000000	-0.016390
624.000000	-0.016402
623.000000	-0.016427
622.000000	-0.016436
621.000000	-0.016486
620.000000	-0.016524
619.000000	-0.016553
618.000000	-0.016649
617.000000	-0.016632
616.000000	-0.016770
615.000000	-0.016720
614.000000	-0.016816
613.000000	-0.016824
612.000000	-0.016904
611.000000	-0.016891
610.000000	-0.017017
609.000000	-0.017083
608.000000	-0.017159
607.000000	-0.017209
606.000000	-0.017263
605.000000	-0.017330
604.000000	-0.017467
603.000000	-0.017530
602.000000	-0.017568
601.000000	-0.017659
600.000000	-0.017768
599.000000	-0.017822
598.000000	-0.017918
597.000000	-0.018018
596.000000	-0.018089
595.000000	-0.018230
594.000000	-0.018288
593.000000	-0.018293
592.000000	-0.018422
591.000000	-0.018476
590.000000	-0.018438
589.000000	-0.018455
588.000000	-0.018368
587.000000	-0.018259
586.000000	-0.018068
585.000000	-0.017872
584.000000	-0.017576
583.000000	-0.017288
582.000000	-0.016900
581.000000	-0.016457
580.000000	-0.016051
579.000000	-0.015586
578.000000	-0.015049
577.000000	-0.014491
576.000000	-0.013827
575.000000	-0.013204
574.000000	-0.012626
573.000000	-0.012010
572.000000	-0.011465
571.000000	-0.011033
570.000000	-0.010601
569.000000	-0.010207
568.000000	-0.009808
567.000000	-0.009464
566.000000	-0.009102
565.000000	-0.008762
564.000000	-0.008558
563.000000	-0.008294
562.000000	-0.008123
561.000000	-0.007914
560.000000	-0.007837
559.000000	-0.007769
558.000000	-0.007692
557.000000	-0.007590
556.000000	-0.007624
555.000000	-0.007603
554.000000	-0.007581
553.000000	-0.007603
552.000000	-0.007633
551.000000	-0.007616
550.000000	-0.007748
549.000000	-0.007714
548.000000	-0.007812
547.000000	-0.007825
546.000000	-0.007914
545.000000	-0.007935
544.000000	-0.008093
543.000000	-0.008187
542.000000	-0.008289
541.000000	-0.008319
540.000000	-0.008481
539.000000	-0.008651
538.000000	-0.008749
537.000000	-0.008881
536.000000	-0.009090
535.000000	-0.009217
534.000000	-0.009302
533.000000	-0.009527
532.000000	-0.009638
531.000000	-0.009769
530.000000	-0.009863
529.000000	-0.009978
528.000000	-0.010113
527.000000	-0.010101
526.000000	-0.010135
525.000000	-0.010164
524.000000	-0.010296
523.000000	-0.010325
522.000000	-0.010444
521.000000	-0.010478
520.000000	-0.010537
519.000000	-0.010648
518.000000	-0.010669
517.000000	-0.010770
516.000000	-0.010804
515.000000	-0.010804
514.000000	-0.010881
513.000000	-0.010995
512.000000	-0.011109
511.000000	-0.011109
510.000000	-0.011202
509.000000	-0.011279
508.000000	-0.011397
507.000000	-0.011444
506.000000	-0.011528
505.000000	-0.011621
504.000000	-0.011748
503.000000	-0.011803
502.000000	-0.011833
501.000000	-0.011964
500.000000	-0.012094
499.000000	-0.012052
498.000000	-0.012280
497.000000	-0.012314
496.000000	-0.012398
495.000000	-0.012411
494.000000	-0.012521
493.000000	-0.012614
492.000000	-0.012744
491.000000	-0.012774
490.000000	-0.012892
489.000000	-0.013044
488.000000	-0.013103
487.000000	-0.013200
486.000000	-0.013322
485.000000	-0.013398
484.000000	-0.013562
483.000000	-0.013675
482.000000	-0.013743
481.000000	-0.013789
480.000000	-0.013945
479.000000	-0.014126
478.000000	-0.014231
477.000000	-0.014382
476.000000	-0.014441
475.000000	-0.014495
474.000000	-0.014588
473.000000	-0.014730
472.000000	-0.014772
471.000000	-0.014890
470.000000	-0.014940
469.000000	-0.015028
468.000000	-0.015112
467.000000	-0.015188
466.000000	-0.015259
465.000000	-0.015381
464.000000	-0.015301
463.000000	-0.015469
462.000000	-0.015377
461.000000	-0.015435
460.000000	-0.015368
459.000000	-0.015276
458.000000	-0.015230
457.000000	-0.015175
456.000000	-0.015175
455.000000	-0.015087
454.000000	-0.014936
453.000000	-0.014810
452.000000	-0.014605
451.000000	-0.014529
450.000000	-0.014403
