PE UV       SUBTECH     SPECTRUM    ASCII       PEDS        4.00        
   -1
cuso4.Sample.Raw.asc
14/04/16
15:35:29.00
14/04/16
15:35:29.00
Studente LDss

450.000000
1
Lambda 25
COM
PerkinElmer UV WinLab 6.0.4.0738 / Lambda25 1.27

480
2
1
0
0
Both on
1
1
1
None
0
0
0
0
 
 
0
0
0
0
0
 
 
 
0
 
0
326
0
 
0
 
 
 
0
0
0
 
0
 
 
 
0
 
 
0
0
0
0
0
 
 
 
 
0
0


0
0
#HDR
-1
-1
#GR
nm
A
1.0
0.0
950.000000
-1.000000
501
8
1.974493
0.007712
#DATA
950.000000	1.534472
949.000000	1.539083
948.000000	1.543860
947.000000	1.548205
946.000000	1.552839
945.000000	1.557309
944.000000	1.562198
943.000000	1.566439
942.000000	1.570524
941.000000	1.575103
940.000000	1.579640
939.000000	1.584125
938.000000	1.589094
937.000000	1.593064
936.000000	1.597916
935.000000	1.602364
934.000000	1.606577
933.000000	1.610711
932.000000	1.615464
931.000000	1.620179
930.000000	1.624755
929.000000	1.628891
928.000000	1.632908
927.000000	1.637434
926.000000	1.641835
925.000000	1.645596
924.000000	1.650957
923.000000	1.655749
922.000000	1.659617
921.000000	1.664475
920.000000	1.668529
919.000000	1.672553
918.000000	1.677661
917.000000	1.681730
916.000000	1.686393
915.000000	1.691163
914.000000	1.695825
913.000000	1.700028
912.000000	1.704837
911.000000	1.708521
910.000000	1.713544
909.000000	1.717828
908.000000	1.722295
907.000000	1.726873
906.000000	1.731044
905.000000	1.735285
904.000000	1.740330
903.000000	1.744088
902.000000	1.748823
901.000000	1.752439
900.000000	1.756857
899.000000	1.761668
898.000000	1.766361
897.000000	1.770335
896.000000	1.774710
895.000000	1.778717
894.000000	1.784571
893.000000	1.786163
892.000000	1.791837
891.000000	1.797070
890.000000	1.799972
889.000000	1.803954
888.000000	1.808351
887.000000	1.812155
886.000000	1.817761
885.000000	1.821349
884.000000	1.825483
883.000000	1.828205
882.000000	1.833741
881.000000	1.837165
880.000000	1.840482
879.000000	1.846114
878.000000	1.848939
877.000000	1.852393
876.000000	1.856377
875.000000	1.860734
874.000000	1.865026
873.000000	1.868601
872.000000	1.871554
871.000000	1.874997
870.000000	1.879217
869.000000	1.881875
868.000000	1.884785
867.000000	1.889553
866.000000	1.891697
865.000000	1.896245
864.000000	1.898989
863.000000	1.901927
862.000000	1.905997
861.000000	1.908020
860.000000	1.912466
859.000000	1.914847
858.000000	1.919312
857.000000	1.920365
856.000000	1.923804
855.000000	1.926577
854.000000	1.929415
853.000000	1.932478
852.000000	1.933972
851.000000	1.936373
850.000000	1.938866
849.000000	1.942097
848.000000	1.944808
847.000000	1.945966
846.000000	1.948789
845.000000	1.949164
844.000000	1.953025
843.000000	1.955142
842.000000	1.956999
841.000000	1.958365
840.000000	1.961221
839.000000	1.961891
838.000000	1.964410
837.000000	1.963273
836.000000	1.965714
835.000000	1.967786
834.000000	1.968210
833.000000	1.970211
832.000000	1.970586
831.000000	1.971548
830.000000	1.971540
829.000000	1.972062
828.000000	1.974137
827.000000	1.973708
826.000000	1.972810
825.000000	1.974493
824.000000	1.973625
823.000000	1.974298
822.000000	1.974068
821.000000	1.973243
820.000000	1.973781
819.000000	1.973961
818.000000	1.973076
817.000000	1.971747
816.000000	1.970073
815.000000	1.969505
814.000000	1.968882
813.000000	1.966511
812.000000	1.967406
811.000000	1.965040
810.000000	1.963656
809.000000	1.960829
808.000000	1.959490
807.000000	1.958285
806.000000	1.956274
805.000000	1.952830
804.000000	1.950350
803.000000	1.949061
802.000000	1.944571
801.000000	1.942923
800.000000	1.940908
799.000000	1.938218
798.000000	1.933502
797.000000	1.929552
796.000000	1.927221
795.000000	1.924070
794.000000	1.919893
793.000000	1.914839
792.000000	1.911638
791.000000	1.907586
790.000000	1.902888
789.000000	1.898787
788.000000	1.894504
787.000000	1.889585
786.000000	1.885659
785.000000	1.880417
784.000000	1.876317
783.000000	1.870367
782.000000	1.865418
781.000000	1.859001
780.000000	1.854428
779.000000	1.848861
778.000000	1.843705
777.000000	1.836990
776.000000	1.829877
775.000000	1.823208
774.000000	1.816280
773.000000	1.808757
772.000000	1.802894
771.000000	1.795286
770.000000	1.788582
769.000000	1.780986
768.000000	1.774440
767.000000	1.766085
766.000000	1.758772
765.000000	1.750528
764.000000	1.743431
763.000000	1.734785
762.000000	1.727301
761.000000	1.718540
760.000000	1.710440
759.000000	1.701644
758.000000	1.693645
757.000000	1.683896
756.000000	1.675331
755.000000	1.666092
754.000000	1.656903
753.000000	1.647594
752.000000	1.638043
751.000000	1.628539
750.000000	1.618830
749.000000	1.608655
748.000000	1.599017
747.000000	1.589176
746.000000	1.578988
745.000000	1.568230
744.000000	1.558300
743.000000	1.547634
742.000000	1.537542
741.000000	1.526347
740.000000	1.515810
739.000000	1.505064
738.000000	1.494220
737.000000	1.483276
736.000000	1.472222
735.000000	1.461426
734.000000	1.450078
733.000000	1.438665
732.000000	1.427430
731.000000	1.416076
730.000000	1.404288
729.000000	1.392810
728.000000	1.381117
727.000000	1.369088
726.000000	1.357010
725.000000	1.344988
724.000000	1.333063
723.000000	1.320684
722.000000	1.308530
721.000000	1.296310
720.000000	1.283936
719.000000	1.271656
718.000000	1.259261
717.000000	1.247050
716.000000	1.234565
715.000000	1.222209
714.000000	1.209914
713.000000	1.197565
712.000000	1.184885
711.000000	1.172400
710.000000	1.160059
709.000000	1.147308
708.000000	1.134926
707.000000	1.122416
706.000000	1.109915
705.000000	1.097610
704.000000	1.085223
703.000000	1.072709
702.000000	1.060202
701.000000	1.047700
700.000000	1.035415
699.000000	1.022937
698.000000	1.010339
697.000000	0.998013
696.000000	0.985535
695.000000	0.973100
694.000000	0.960774
693.000000	0.948283
692.000000	0.935727
691.000000	0.923325
690.000000	0.910986
689.000000	0.898665
688.000000	0.886328
687.000000	0.874374
686.000000	0.862073
685.000000	0.849894
684.000000	0.837501
683.000000	0.825143
682.000000	0.813353
681.000000	0.801481
680.000000	0.789743
679.000000	0.778068
678.000000	0.766581
677.000000	0.754965
676.000000	0.743615
675.000000	0.732109
674.000000	0.720863
673.000000	0.709816
672.000000	0.698882
671.000000	0.687908
670.000000	0.677135
669.000000	0.666458
668.000000	0.655853
667.000000	0.645123
666.000000	0.634479
665.000000	0.624059
664.000000	0.613704
663.000000	0.603291
662.000000	0.593024
661.000000	0.582868
660.000000	0.572827
659.000000	0.562767
658.000000	0.552894
657.000000	0.542986
656.000000	0.533199
655.000000	0.523769
654.000000	0.514322
653.000000	0.504980
652.000000	0.495796
651.000000	0.486638
650.000000	0.477695
649.000000	0.468896
648.000000	0.460093
647.000000	0.451356
646.000000	0.442724
645.000000	0.434240
644.000000	0.425896
643.000000	0.417793
642.000000	0.409636
641.000000	0.401516
640.000000	0.393818
639.000000	0.386169
638.000000	0.378560
637.000000	0.371083
636.000000	0.363669
635.000000	0.356408
634.000000	0.349324
633.000000	0.342091
632.000000	0.335142
631.000000	0.328410
630.000000	0.321572
629.000000	0.314783
628.000000	0.308223
627.000000	0.301600
626.000000	0.295111
625.000000	0.288804
624.000000	0.282689
623.000000	0.276518
622.000000	0.270660
621.000000	0.264841
620.000000	0.259152
619.000000	0.253470
618.000000	0.247829
617.000000	0.242439
616.000000	0.237101
615.000000	0.231810
614.000000	0.226586
613.000000	0.221684
612.000000	0.216540
611.000000	0.211778
610.000000	0.207008
609.000000	0.202433
608.000000	0.197865
607.000000	0.193417
606.000000	0.188994
605.000000	0.184773
604.000000	0.180497
603.000000	0.176421
602.000000	0.172360
601.000000	0.168366
600.000000	0.164521
599.000000	0.160700
598.000000	0.157018
597.000000	0.153268
596.000000	0.149681
595.000000	0.146212
594.000000	0.142633
593.000000	0.139276
592.000000	0.135979
591.000000	0.132723
590.000000	0.129656
589.000000	0.126486
588.000000	0.123467
587.000000	0.120479
586.000000	0.117638
585.000000	0.114698
584.000000	0.111925
583.000000	0.109268
582.000000	0.106549
581.000000	0.104026
580.000000	0.101375
579.000000	0.098990
578.000000	0.096495
577.000000	0.094226
576.000000	0.091856
575.000000	0.089515
574.000000	0.087316
573.000000	0.085263
572.000000	0.083153
571.000000	0.081035
570.000000	0.079152
569.000000	0.077181
568.000000	0.075219
567.000000	0.073349
566.000000	0.071438
565.000000	0.069570
564.000000	0.067865
563.000000	0.066233
562.000000	0.064411
561.000000	0.062814
560.000000	0.061169
559.000000	0.059727
558.000000	0.058148
557.000000	0.056571
556.000000	0.055254
555.000000	0.053736
554.000000	0.052321
553.000000	0.051066
552.000000	0.049667
551.000000	0.048363
550.000000	0.047166
549.000000	0.045937
548.000000	0.044723
547.000000	0.043646
546.000000	0.042437
545.000000	0.041303
544.000000	0.040330
543.000000	0.039131
542.000000	0.038263
541.000000	0.037273
540.000000	0.036349
539.000000	0.035412
538.000000	0.034457
537.000000	0.033527
536.000000	0.032798
535.000000	0.031821
534.000000	0.031004
533.000000	0.030191
532.000000	0.029391
531.000000	0.028611
530.000000	0.027880
529.000000	0.027075
528.000000	0.026384
527.000000	0.025784
526.000000	0.025049
525.000000	0.024477
524.000000	0.023810
523.000000	0.023227
522.000000	0.022614
521.000000	0.022041
520.000000	0.021450
519.000000	0.020915
518.000000	0.020410
517.000000	0.019797
516.000000	0.019340
515.000000	0.018816
514.000000	0.018416
513.000000	0.017936
512.000000	0.017526
511.000000	0.017034
510.000000	0.016753
509.000000	0.016344
508.000000	0.015916
507.000000	0.015609
506.000000	0.015260
505.000000	0.014905
504.000000	0.014511
503.000000	0.014187
502.000000	0.013870
501.000000	0.013718
500.000000	0.013263
499.000000	0.012968
498.000000	0.012928
497.000000	0.012587
496.000000	0.012213
495.000000	0.012026
494.000000	0.011876
493.000000	0.011528
492.000000	0.011337
491.000000	0.011250
490.000000	0.010944
489.000000	0.010810
488.000000	0.010584
487.000000	0.010379
486.000000	0.010361
485.000000	0.010152
484.000000	0.009995
483.000000	0.009909
482.000000	0.009824
481.000000	0.009574
480.000000	0.009571
479.000000	0.009315
478.000000	0.009316
477.000000	0.009163
476.000000	0.009020
475.000000	0.008910
474.000000	0.009000
473.000000	0.008846
472.000000	0.008809
471.000000	0.008653
470.000000	0.008575
469.000000	0.008462
468.000000	0.008510
467.000000	0.008519
466.000000	0.008235
465.000000	0.008221
464.000000	0.008224
463.000000	0.008181
462.000000	0.008129
461.000000	0.008054
460.000000	0.008087
459.000000	0.008025
458.000000	0.007975
457.000000	0.007934
456.000000	0.007901
455.000000	0.007843
454.000000	0.007870
453.000000	0.007712
452.000000	0.007749
451.000000	0.007738
450.000000	0.007712
